wavelength,spectrum
1150,0.0
1155,0.0
1160,0.0
1165,0.0
1170,0.0
1175,0.0
1180,0.0
1185,0.0
1190,0.0
1195,0.0
1200,0.0
1205,0.0
1210,0.0
1215,0.0
1220,0.0
1225,0.0
1230,0.0
1235,0.0
1240,0.0
1245,0.0
1250,0.0
1255,0.0
1260,0.0
1265,0.0
1270,0.0
1275,0.0
1280,0.0
1285,0.0
1290,0.0
1295,0.0
1300,0.0
1305,0.0
1310,0.0
1315,0.0
1320,0.0
1325,0.0
1330,0.0
1335,0.0
1340,0.0
1345,0.0
1350,0.0
1355,0.0
1360,0.0
1365,0.0
1370,0.0
1375,0.0
1380,0.0
1385,0.0
1390,0.0
1395,0.0
1400,0.0
1405,0.0
1410,0.0
1415,0.0
1420,0.0
1425,0.0
1430,0.0
1435,0.0
1440,0.0
1445,0.0
1450,0.0
1455,0.0
1460,0.0
1465,0.0
1470,0.0
1475,0.0
1480,0.0
1485,0.0
1490,0.0
1495,0.0
1500,0.0
1505,0.0
1510,0.0
1515,0.0
1520,0.0
1525,0.0
1530,0.0
1535,0.0
1540,0.0
1545,0.0
1550,0.0
1555,0.0
1560,0.0
1565,0.0
1570,0.0
1575,0.0
1580,0.0
1585,0.0
1590,0.0
1595,0.0
1600,0.0
1605,0.0
1610,0.0
1615,0.0
1620,0.0
1625,0.0
1630,0.0
1635,0.0
1640,0.0
1645,0.0
1650,0.0
1655,0.0
1660,0.0
1665,0.0
1670,0.0
1675,0.0
1680,0.0
1685,0.0
1690,0.0
1695,0.0
1700,0.0
1705,0.0
1710,0.0
1715,0.0
1720,0.0
1725,0.0
1730,0.0
1735,0.0
1740,0.0
1745,0.0
1750,0.0
1755,0.0
1760,0.0
1765,0.0
1770,0.0
1775,0.0
1780,0.0
1785,0.0
1790,0.0
1795,0.0
1800,0.0
1805,0.0
1810,0.0
1815,0.0
1820,0.0
1825,0.0
1830,0.0
1835,0.0
1840,0.0
1845,0.0
1850,0.0
1855,0.0
1860,0.0
1865,0.0
1870,0.0
1875,0.0
1880,0.0
1885,0.0
1890,0.0
1895,0.0
1900,0.0
1905,0.0
1910,0.0
1915,0.0
1920,0.0
1925,0.0
1930,0.0
1935,0.0
1940,0.0
1945,0.0
1950,0.0
1955,0.0
1960,0.0
1965,0.0
1970,0.0
1975,0.0
1980,0.0
1985,0.0
1990,0.0
1995,0.0
2000,0.0
2005,0.0
2010,0.0
2015,0.0
2020,0.0
2025,0.0
2030,0.0
2035,0.0
2040,0.0
2045,0.0
2050,0.0
2055,0.0
2060,0.0
2065,0.0
2070,0.0
2075,0.0
2080,0.0
2085,0.0
2090,0.0
2095,0.0
2100,0.0
2105,0.0
2110,0.0
2115,0.0
2120,0.0
2125,0.0
2130,0.0
2135,0.0
2140,0.0
2145,0.0
2150,0.0
2155,0.0
2160,0.001
2165,0.001
2170,0.001
2175,0.002
2180,0.002
2185,0.003
2190,0.003
2195,0.003
2200,0.004
2205,0.004
2210,0.004
2215,0.004
2220,0.005
2225,0.005
2230,0.005
2235,0.005
2240,0.005
2245,0.005
2250,0.005
2255,0.005
2260,0.005
2265,0.005
2270,0.005
2275,0.005
2280,0.005
2285,0.005
2290,0.005
2295,0.005
2300,0.006
2305,0.006
2310,0.006
2315,0.006
2320,0.007
2325,0.007
2330,0.007
2335,0.007
2340,0.007
2345,0.008
2350,0.008
2355,0.008
2360,0.008
2365,0.008
2370,0.007
2375,0.007
2380,0.007
2385,0.007
2390,0.007
2395,0.007
2400,0.008
2405,0.008
2410,0.008
2415,0.009
2420,0.009
2425,0.009
2430,0.01
2435,0.01
2440,0.01
2445,0.01
2450,0.01
2455,0.01
2460,0.01
2465,0.01
2470,0.01
2475,0.009
2480,0.009
2485,0.009
2490,0.009
2495,0.008
2500,0.009
2505,0.009
2510,0.009
2515,0.01
2520,0.01
2525,0.011
2530,0.012
2535,0.012
2540,0.013
2545,0.014
2550,0.014
2555,0.015
2560,0.015
2565,0.016
2570,0.016
2575,0.017
2580,0.018
2585,0.019
2590,0.02
2595,0.022
2600,0.024
2605,0.026
2610,0.029
2615,0.032
2620,0.035
2625,0.038
2630,0.041
2635,0.044
2640,0.047
2645,0.05
2650,0.052
2655,0.054
2660,0.055
2665,0.056
2670,0.057
2675,0.057
2680,0.057
2685,0.057
2690,0.056
2695,0.055
2700,0.054
2705,0.052
2710,0.051
2715,0.049
2720,0.047
2725,0.045
2730,0.043
2735,0.042
2740,0.04
2745,0.039
2750,0.038
2755,0.037
2760,0.037
2765,0.037
2770,0.038
2775,0.038
2780,0.038
2785,0.039
2790,0.039
2795,0.039
2800,0.039
2805,0.038
2810,0.038
2815,0.037
2820,0.037
2825,0.037
2830,0.037
2835,0.038
2840,0.04
2845,0.043
2850,0.047
2855,0.053
2860,0.059
2865,0.067
2870,0.074
2875,0.083
2880,0.091
2885,0.099
2890,0.106
2895,0.113
2900,0.118
2905,0.123
2910,0.126
2915,0.128
2920,0.129
2925,0.129
2930,0.128
2935,0.127
2940,0.125
2945,0.122
2950,0.119
2955,0.116
2960,0.113
2965,0.109
2970,0.106
2975,0.102
2980,0.099
2985,0.097
2990,0.096
2995,0.095
3000,0.095
3005,0.096
3010,0.098
3015,0.101
3020,0.104
3025,0.108
3030,0.113
3035,0.117
3040,0.122
3045,0.126
3050,0.131
3055,0.135
3060,0.138
3065,0.142
3070,0.145
3075,0.148
3080,0.151
3085,0.153
3090,0.156
3095,0.159
3100,0.161
3105,0.164
3110,0.166
3115,0.168
3120,0.171
3125,0.173
3130,0.176
3135,0.178
3140,0.18
3145,0.183
3150,0.185
3155,0.187
3160,0.201
3165,0.205
3170,0.209
3175,0.213
3180,0.215
3185,0.215
3190,0.215
3195,0.215
3200,0.234
3205,0.241
3210,0.241
3215,0.225
3220,0.21
3225,0.212
3230,0.218
3235,0.217
3240,0.216
3245,0.225
3250,0.242
3255,0.262
3260,0.28
3265,0.294
3270,0.3
3275,0.295
3280,0.29
3285,0.296
3290,0.31
3295,0.325
3300,0.332
3305,0.32
3310,0.305
3315,0.3
3320,0.301
3325,0.301
3330,0.3
3335,0.302
3340,0.307
3345,0.313
3350,0.317
3355,0.314
3360,0.3
3365,0.278
3370,0.263
3375,0.267
3380,0.281
3385,0.293
3390,0.304
3395,0.315
3400,0.324
3405,0.324
3410,0.321
3415,0.318
3420,0.32
3425,0.328
3430,0.329
3435,0.313
3440,0.293
3445,0.285
3450,0.289
3455,0.303
3460,0.315
3465,0.315
3470,0.31
3475,0.31
3480,0.311
3485,0.309
3490,0.311
3495,0.322
3500,0.341
3505,0.357
3510,0.362
3515,0.349
3520,0.334
3525,0.331
3530,0.342
3535,0.361
3540,0.378
3545,0.386
3550,0.381
3555,0.364
3560,0.343
3565,0.324
3570,0.304
3575,0.281
3580,0.265
3585,0.267
3590,0.289
3595,0.324
3600,0.351
3605,0.32
3610,0.308
3615,0.304
3620,0.311
3625,0.326
3630,0.344
3635,0.357
3640,0.367
3645,0.377
3650,0.393
3655,0.417
3660,0.444
3665,0.465
3670,0.47
3675,0.458
3680,0.441
3685,0.431
3690,0.433
3695,0.443
3700,0.456
3705,0.464
3710,0.459
3715,0.437
3720,0.402
3725,0.363
3730,0.332
3735,0.316
3740,0.315
3745,0.327
3750,0.341
3755,0.354
3760,0.372
3765,0.401
3770,0.439
3775,0.473
3780,0.487
3785,0.474
3790,0.449
3795,0.429
3800,0.421
3805,0.418
3810,0.405
3815,0.37
3820,0.319
3825,0.271
3830,0.242
3835,0.242
3840,0.264
3845,0.289
3850,0.309
3855,0.317
3860,0.318
3865,0.32
3870,0.326
3875,0.336
3880,0.35
3885,0.366
3890,0.381
3895,0.394
3900,0.41
3905,0.43
3910,0.451
3915,0.459
3920,0.437
3925,0.381
3930,0.318
3935,0.284
3940,0.297
3945,0.352
3950,0.413
3955,0.439
3960,0.422
3965,0.382
3970,0.362
3975,0.396
3980,0.473
3985,0.559
3990,0.627
3995,0.665
4000,0.683
4005,0.698
4010,0.714
4015,0.727
4020,0.734
4025,0.732
4030,0.718
4035,0.696
4040,0.682
4045,0.685
4050,0.695
4055,0.697
4060,0.686
4065,0.668
4070,0.659
4075,0.671
4080,0.703
4085,0.74
4090,0.762
4095,0.756
4100,0.734
4105,0.718
4110,0.719
4115,0.738
4120,0.758
4125,0.763
4130,0.75
4135,0.731
4140,0.712
4145,0.701
4150,0.703
4155,0.715
4160,0.727
4165,0.73
4170,0.727
4175,0.722
4180,0.718
4185,0.714
4190,0.709
4195,0.704
4200,0.706
4205,0.719
4210,0.737
4215,0.747
4220,0.74
4225,0.72
4230,0.699
4235,0.692
4240,0.701
4245,0.716
4250,0.73
4255,0.737
4260,0.731
4265,0.716
4270,0.701
4275,0.692
4280,0.692
4285,0.695
4290,0.682
4295,0.644
4300,0.602
4305,0.585
4310,0.603
4315,0.652
4320,0.71
4325,0.751
4330,0.773
4335,0.785
4340,0.787
4345,0.781
4350,0.782
4355,0.796
4360,0.812
4365,0.813
4370,0.796
4375,0.768
4380,0.743
4385,0.733
4390,0.736
4395,0.743
4400,0.752
4405,0.766
4410,0.785
4415,0.812
4420,0.84
4425,0.858
4430,0.87
4435,0.877
4440,0.879
4445,0.875
4450,0.867
4455,0.857
4460,0.854
4465,0.866
4470,0.889
4475,0.914
4480,0.933
4485,0.943
4490,0.946
4495,0.953
4500,0.966
4505,0.98
4510,0.989
4515,0.985
4520,0.967
4525,0.941
4530,0.919
4535,0.91
4540,0.915
4545,0.927
4550,0.942
4555,0.956
4560,0.966
4565,0.969
4570,0.967
4575,0.959
4580,0.95
4585,0.942
4590,0.937
4595,0.935
4600,0.939
4605,0.949
4610,0.964
4615,0.978
4620,0.988
4625,0.991
4630,0.982
4635,0.964
4640,0.947
4645,0.939
4650,0.94
4655,0.941
4660,0.94
4665,0.936
4670,0.932
4675,0.931
4680,0.936
4685,0.944
4690,0.946
4695,0.937
4700,0.923
4705,0.916
4710,0.921
4715,0.936
4720,0.952
4725,0.962
4730,0.965
4735,0.964
4740,0.968
4745,0.978
4750,0.984
4755,0.98
4760,0.97
4765,0.965
4770,0.969
4775,0.979
4780,0.99
4785,0.996
4790,0.999
4820,1.0
4825,0.993
4830,0.987
4835,0.985
4840,0.985
4845,0.982
4850,0.968
4855,0.944
4860,0.919
4865,0.903
4870,0.9
4875,0.909
4880,0.921
4885,0.931
4890,0.941
4895,0.956
4900,0.969
4905,0.971
4910,0.961
4915,0.941
4920,0.924
4925,0.92
4930,0.929
4935,0.942
4940,0.954
4945,0.958
4950,0.957
4955,0.955
4960,0.958
4965,0.964
4970,0.964
4975,0.954
4980,0.94
4985,0.93
4990,0.928
4995,0.928
5000,0.923
5005,0.91
5010,0.894
5015,0.886
5020,0.891
5025,0.905
5030,0.917
5035,0.918
5040,0.911
5045,0.907
5050,0.911
5055,0.921
5060,0.931
5065,0.933
5070,0.926
5075,0.914
5080,0.906
5085,0.906
5090,0.912
5095,0.918
5100,0.92
5105,0.917
5110,0.915
5115,0.916
5120,0.917
5125,0.912
5130,0.901
5135,0.889
5140,0.879
5145,0.875
5150,0.875
5155,0.874
5160,0.86
5165,0.829
5170,0.791
5175,0.765
5180,0.759
5185,0.774
5190,0.805
5195,0.838
5200,0.862
5205,0.87
5210,0.871
5215,0.877
5220,0.883
5225,0.884
5230,0.884
5235,0.892
5240,0.907
5245,0.925
5250,0.933
5255,0.922
5260,0.894
5265,0.862
5270,0.844
5275,0.852
5280,0.88
5285,0.915
5290,0.94
5295,0.947
5300,0.945
5305,0.948
5310,0.955
5315,0.959
5320,0.95
5325,0.926
5330,0.9
5335,0.889
5340,0.899
5345,0.923
5350,0.949
5355,0.964
5360,0.963
5365,0.949
5370,0.938
5375,0.937
5380,0.946
5385,0.952
5390,0.947
5395,0.926
5400,0.902
5405,0.89
5410,0.894
5415,0.912
5420,0.93
5425,0.938
5430,0.937
5435,0.936
5440,0.94
5445,0.948
5450,0.955
5455,0.955
5460,0.95
5465,0.947
5470,0.945
5475,0.941
5480,0.938
5485,0.939
5490,0.943
5495,0.95
5500,0.955
5505,0.954
5510,0.951
5515,0.951
5520,0.951
5525,0.949
5530,0.946
5535,0.944
5540,0.947
5545,0.954
5550,0.96
5555,0.959
5560,0.952
5565,0.945
5570,0.938
5575,0.934
5580,0.929
5585,0.921
5590,0.912
5595,0.905
5600,0.908
5605,0.925
5610,0.941
5615,0.945
5620,0.94
5625,0.935
5630,0.937
5635,0.945
5640,0.954
5645,0.959
5650,0.955
5655,0.945
5660,0.936
5665,0.938
5670,0.946
5675,0.955
5680,0.958
5685,0.955
5690,0.947
5695,0.935
5700,0.925
5705,0.922
5710,0.923
5715,0.929
5720,0.94
5725,0.956
5730,0.966
5735,0.961
5740,0.948
5745,0.938
5750,0.934
5755,0.935
5760,0.939
5765,0.941
5770,0.941
5775,0.938
5780,0.935
5785,0.933
5790,0.934
5795,0.936
5800,0.941
5805,0.946
5810,0.949
5815,0.951
5820,0.952
5825,0.953
5830,0.956
5835,0.959
5840,0.961
5845,0.957
5850,0.95
5855,0.935
5860,0.936
5865,0.943
5870,0.946
5875,0.941
5880,0.92
5885,0.869
5890,0.819
5895,0.823
5900,0.866
5905,0.904
5910,0.918
5915,0.926
5920,0.931
5925,0.931
5930,0.928
5935,0.934
5940,0.936
5945,0.933
5950,0.931
5955,0.933
5960,0.936
5965,0.939
5970,0.939
5975,0.934
5980,0.926
5985,0.927
5990,0.93
5995,0.931
6000,0.925
6005,0.918
6010,0.91
6015,0.907
6020,0.906
6025,0.914
6030,0.934
6035,0.945
6040,0.943
6045,0.941
6050,0.941
6055,0.933
6060,0.932
6065,0.932
6070,0.936
6075,0.935
6080,0.928
6085,0.923
6090,0.917
6095,0.914
6100,0.913
6105,0.91
6110,0.921
6115,0.92
6120,0.91
6125,0.899
6130,0.904
6135,0.892
6140,0.894
6145,0.905
6150,0.903
6155,0.889
6160,0.868
6165,0.861
6170,0.874
6175,0.891
6180,0.903
6185,0.903
6190,0.901
6195,0.908
6200,0.912
6205,0.911
6210,0.907
6215,0.896
6220,0.895
6225,0.89
6230,0.882
6235,0.883
6240,0.881
6245,0.876
6250,0.876
6255,0.869
6260,0.878
6265,0.886
6270,0.885
6275,0.883
6280,0.876
6285,0.884
6290,0.887
6295,0.881
6300,0.88
6305,0.883
6310,0.885
6315,0.876
6320,0.875
6325,0.884
6330,0.888
6335,0.88
6340,0.882
6345,0.891
6350,0.894
6355,0.886
6360,0.878
6365,0.885
6370,0.899
6375,0.901
6380,0.904
6385,0.904
6390,0.898
6395,0.885
6400,0.878
6405,0.875
6410,0.872
6415,0.877
6420,0.88
6425,0.889
6430,0.891
6435,0.887
6440,0.886
6445,0.886
6450,0.879
6455,0.879
6460,0.875
6465,0.873
6470,0.876
6475,0.876
6480,0.874
6485,0.873
6490,0.861
6495,0.837
6500,0.856
6505,0.878
6510,0.886
6515,0.885
6520,0.883
6525,0.886
6530,0.883
6535,0.886
6540,0.887
6545,0.877
6550,0.863
6555,0.84
6560,0.794
6565,0.784
6570,0.829
6575,0.851
6580,0.863
6585,0.867
6590,0.863
6595,0.86
6600,0.871
6605,0.876
6610,0.875
6615,0.876
6620,0.877
6625,0.872
6630,0.864
6635,0.865
6640,0.869
6645,0.868
6650,0.867
6655,0.866
6660,0.862
6665,0.859
6670,0.864
6675,0.859
6680,0.853
6685,0.861
6690,0.863
6695,0.861
6700,0.86
6705,0.861
6710,0.855
6715,0.846
6720,0.845
6725,0.85
6730,0.853
6735,0.854
6740,0.852
6745,0.85
6750,0.847
6755,0.852
6760,0.853
6765,0.852
6770,0.847
6775,0.851
6780,0.852
6785,0.847
6790,0.848
6795,0.848
6800,0.846
6805,0.846
6810,0.841
6815,0.843
6820,0.843
6825,0.845
6830,0.842
6835,0.84
6840,0.839
6845,0.837
6850,0.833
6855,0.83
6860,0.826
6865,0.823
6870,0.823
6875,0.824
6880,0.826
6885,0.828
6890,0.827
6895,0.826
6900,0.825
6905,0.827
6910,0.831
6915,0.835
6920,0.835
6925,0.831
6930,0.826
6935,0.822
6940,0.821
6945,0.823
6950,0.824
6955,0.824
6960,0.822
6965,0.82
6970,0.821
6975,0.817
6980,0.817
6985,0.825
6990,0.821
6995,0.816
7000,0.812
7005,0.806
7010,0.809
7015,0.805
7020,0.804
7025,0.801
7030,0.803
7035,0.801
7040,0.804
7045,0.81
7050,0.808
7055,0.801
7060,0.798
7065,0.798
7070,0.8
7075,0.807
7080,0.808
7085,0.801
7090,0.801
7095,0.804
7100,0.808
7105,0.805
7110,0.797
7115,0.791
7120,0.784
7125,0.779
7130,0.78
7135,0.791
7140,0.798
7145,0.792
7150,0.789
7155,0.789
7160,0.786
7165,0.78
7170,0.785
7175,0.783
7180,0.773
7185,0.762
7190,0.75
7195,0.755
7200,0.758
7205,0.752
7210,0.763
7215,0.782
7220,0.781
7225,0.785
7230,0.786
7235,0.776
7240,0.777
7245,0.774
7250,0.773
7255,0.77
7260,0.772
7265,0.769
7270,0.773
7275,0.766
7280,0.763
7285,0.762
7290,0.751
7295,0.762
7300,0.772
7305,0.766
7310,0.765
7315,0.77
7320,0.77
7325,0.769
7330,0.77
7335,0.777
7340,0.779
7345,0.778
7350,0.772
7355,0.766
7360,0.765
7365,0.767
7370,0.773
7375,0.77
7380,0.767
7385,0.753
7390,0.749
7395,0.759
7400,0.758
7405,0.757
7410,0.749
7415,0.747
7420,0.748
7425,0.751
7430,0.76
7435,0.761
7440,0.758
7445,0.749
7450,0.757
7455,0.764
7460,0.757
7465,0.757
7470,0.758
7475,0.754
7480,0.752
7485,0.751
7490,0.743
7495,0.738
7500,0.746
7505,0.743
7510,0.735
7515,0.743
7520,0.744
7525,0.742
7530,0.743
7535,0.744
7540,0.747
7545,0.742
7550,0.737
7555,0.736
7560,0.737
7565,0.742
7570,0.747
7575,0.752
7580,0.754
7585,0.753
7590,0.748
7595,0.743
7600,0.74
7605,0.74
7610,0.742
7615,0.744
7620,0.746
7625,0.746
7630,0.743
7635,0.74
7640,0.736
7645,0.732
7650,0.729
7655,0.725
7660,0.72
7665,0.714
7670,0.708
7675,0.704
7680,0.702
7685,0.704
7690,0.708
7695,0.712
7700,0.716
7705,0.717
7710,0.717
7715,0.715
7720,0.714
7725,0.713
7730,0.714
7735,0.718
7740,0.716
7745,0.707
7750,0.706
7755,0.714
7760,0.715
7765,0.717
7770,0.715
7775,0.713
7780,0.709
7785,0.71
7790,0.712
7795,0.709
7800,0.705
7805,0.705
7810,0.705
7815,0.708
7820,0.71
7825,0.708
7830,0.701
7835,0.694
7840,0.705
7845,0.706
7850,0.703
7855,0.706
7860,0.707
7865,0.705
7870,0.701
7875,0.702
7880,0.701
7885,0.703
7890,0.704
7895,0.701
7900,0.7
7905,0.697
7910,0.694
7915,0.689
7920,0.685
7925,0.687
7930,0.68
7935,0.67
7940,0.673
7945,0.672
7950,0.682
7955,0.686
7960,0.688
7965,0.692
7970,0.692
7975,0.692
7980,0.692
7985,0.693
7990,0.69
7995,0.682
8000,0.676
8005,0.682
8010,0.682
8015,0.685
8020,0.682
8025,0.676
8030,0.678
8035,0.681
8040,0.679
8045,0.67
8050,0.67
8055,0.677
8060,0.68
8065,0.678
8070,0.673
8075,0.67
8080,0.67
8085,0.664
8090,0.662
8095,0.657
8100,0.661
8105,0.667
8110,0.669
8115,0.672
8120,0.674
8125,0.676
8130,0.673
8135,0.67
8140,0.667
8145,0.662
8150,0.655
8155,0.653
8160,0.646
8165,0.636
8170,0.641
8175,0.643
8180,0.63
8185,0.632
8190,0.635
8195,0.63
8200,0.639
8205,0.651
8210,0.65
8215,0.645
8220,0.638
8225,0.633
8230,0.619
8235,0.63
8240,0.647
8245,0.647
8250,0.652
8255,0.653
8260,0.652
8265,0.657
8270,0.649
8275,0.641
8280,0.637
8285,0.636
8290,0.632
8295,0.633
8300,0.634
8305,0.629
8310,0.63
8315,0.632
8320,0.624
8325,0.619
8330,0.614
8335,0.613
8340,0.614
8345,0.62
8350,0.623
8355,0.628
8360,0.629
8365,0.629
8370,0.629
8375,0.626
8380,0.625
8385,0.618
8390,0.62
8395,0.629
8400,0.63
8405,0.627
8410,0.617
8415,0.615
8420,0.609
8425,0.604
8430,0.614
8435,0.603
8440,0.603
8445,0.609
8450,0.616
8455,0.619
8460,0.615
8465,0.61
8470,0.601
8475,0.61
8480,0.617
8485,0.612
8490,0.606
8495,0.571
8500,0.551
8505,0.583
8510,0.591
8515,0.589
8520,0.593
8525,0.591
8530,0.58
8535,0.553
8540,0.485
8545,0.484
8550,0.55
8555,0.574
8560,0.585
8565,0.591
8570,0.594
8575,0.591
8580,0.592
8585,0.588
8590,0.591
8595,0.587
8600,0.584
8605,0.589
8610,0.582
8615,0.578
8620,0.582
8625,0.59
8630,0.59
8635,0.589
8640,0.596
8645,0.588
8650,0.575
8655,0.557
8660,0.503
8665,0.498
8670,0.547
8675,0.565
8680,0.58
8685,0.572
8690,0.572
8695,0.589
8700,0.594
8705,0.591
8710,0.593
8715,0.587
8720,0.593
8725,0.59
8730,0.59
8735,0.577
8740,0.579
8745,0.585
8750,0.586
8755,0.582
8760,0.584
8765,0.586
8770,0.583
8775,0.58
8780,0.591
8785,0.584
8790,0.577
8795,0.574
8800,0.574
8805,0.551
8810,0.553
8815,0.581
8820,0.579
8825,0.571
8830,0.582
8835,0.583
8840,0.578
8845,0.578
8850,0.581
8855,0.58
8860,0.572
8865,0.567
8870,0.563
8875,0.572
8880,0.572
8885,0.577
8890,0.574
8895,0.572
8900,0.576
8905,0.576
8910,0.574
8915,0.572
8920,0.572
8925,0.579
8930,0.577
8935,0.58
8940,0.579
8945,0.577
8950,0.575
8955,0.577
8960,0.579
8965,0.572
8970,0.573
8975,0.569
8980,0.57
8985,0.563
8990,0.552
8995,0.55
9000,0.549
9005,0.551
9010,0.549
9015,0.549
9020,0.553
9025,0.566
9030,0.581
9035,0.595
9040,0.6
9045,0.598
9050,0.598
9055,0.595
9060,0.585
9065,0.573
9070,0.564
9075,0.56
9080,0.547
9085,0.546
9090,0.54
9095,0.55
9100,0.552
9105,0.552
9110,0.554
9115,0.557
9120,0.552
9125,0.559
9130,0.55
9135,0.54
9140,0.541
9145,0.548
9150,0.541
9155,0.532
9160,0.534
9165,0.546
9170,0.539
9175,0.531
9180,0.539
9185,0.546
9190,0.55
9195,0.549
9200,0.553
9205,0.552
9210,0.546
9215,0.543
9220,0.543
9225,0.543
9230,0.543
9235,0.539
9240,0.538
9245,0.532
9250,0.531
9255,0.527
9260,0.533
9265,0.545
9270,0.557
9275,0.554
9280,0.551
9285,0.554
9290,0.552
9295,0.542
9300,0.533
9305,0.531
9310,0.518
9315,0.505
9320,0.507
9325,0.496
9330,0.503
9335,0.504
9340,0.481
9345,0.46
9350,0.489
9355,0.475
9360,0.469
9365,0.496
9370,0.485
9375,0.51
9380,0.513
9385,0.54
9390,0.571
9395,0.596
9400,0.587
9405,0.572
9410,0.555
9415,0.546
9420,0.541
9425,0.531
9430,0.494
9435,0.509
9440,0.481
9445,0.478
9450,0.512
9455,0.507
9460,0.498
9465,0.5
9470,0.522
9475,0.526
9480,0.514
9485,0.522
9490,0.539
9495,0.512
9500,0.497
9505,0.511
9510,0.536
9515,0.525
9520,0.507
9525,0.498
9530,0.51
9535,0.518
9540,0.52
9545,0.505
9550,0.508
9555,0.494
9560,0.508
9565,0.504
9570,0.504
9575,0.51
9580,0.51
9585,0.503
9590,0.492
9595,0.479
9600,0.486
9605,0.498
9610,0.501
9615,0.507
9620,0.496
9625,0.491
9630,0.495
9635,0.497
9640,0.48
9645,0.48
9650,0.479
9655,0.49
9660,0.481
9665,0.476
9670,0.494
9675,0.499
9680,0.497
9685,0.498
9690,0.497
9695,0.496
9700,0.496
9705,0.49
9710,0.48
9715,0.486
9720,0.487
9725,0.487
9730,0.478
9735,0.469
9740,0.475
9745,0.458
9750,0.466
9755,0.458
9760,0.467
9765,0.46
9770,0.474
9775,0.472
9780,0.469
9785,0.472
9790,0.487
9795,0.467
9800,0.476
9805,0.475
9810,0.473
9815,0.476
9820,0.481
9825,0.471
9830,0.47
9835,0.47
9840,0.474
9845,0.478
9850,0.466
9855,0.466
9860,0.478
9865,0.472
9870,0.467
9875,0.468
9880,0.464
9885,0.465
9890,0.459
9895,0.456
9900,0.46
9905,0.476
9910,0.463
9915,0.467
9920,0.468
9925,0.464
9930,0.465
9935,0.462
9940,0.445
9945,0.459
9950,0.462
9955,0.458
9960,0.457
9965,0.457
9970,0.463
9975,0.463
9980,0.444
9985,0.454
9990,0.455
9995,0.457
